#Acq. time (s)=	20
#Accumulations=	8
#Range (cm-¹)=	50...4000
#Windows=	3
#Autofocus=	Off
#AutoExposure=	Off
#Spike filter=	Multiple accum.
#Delay time (s)=	0
#Binning=	1
#Readout mode=	Signal
#DeNoise=	Off
#ICS correction=	Off
#Dark correction=	Off
#Inst. Process=	Off
#Instrument=	LabRAM HR Evol
#Detector=	Syncerity OE
#Objective=	x100_VIS
#Grating=	600 (500nm)
#ND Filter=	5%
#Laser=	532nm_Edge
#Hole=	100.021
#Range=	Visible
#Project=	Omar
#Sample=	120523
#Site=	ap
#Title=	mz
#Remark=	5 laser intensity
#Date=	12.05.2023 17:01
#Acquired=	12.05.2023 17:01:16
51.0297	26.5714
52.8754	31.6332
54.7185	34.6951
56.5635	36.8997
58.406	52.8187
60.2502	80.4519
62.0919	110.085
63.9355	145.147
65.7765	178.78
67.6193	214.128
69.4595	257.761
71.3016	300.251
73.1412	363.885
74.9825	413.232
76.8214	442.294
78.662	473.927
80.5001	496.132
82.34	524.051
84.1774	563.684
86.0166	568.746
87.8532	578.379
89.6917	601.727
91.5276	601.36
93.3632	598.707
95.2006	585.483
97.0355	587.974
98.8721	593.321
100.706	593.526
102.54	600.588
104.376	601.078
106.209	608.711
108.041	608.345
109.876	612.549
111.708	601.04
113.542	615.244
115.373	599.163
117.204	616.225
119.036	612.716
120.867	605.492
122.697	606.839
124.526	602.472
126.357	603.249
128.186	602.596
130.014	595.372
131.845	600.72
133.672	599.782
135.5	616.843
137.327	610.762
139.155	613.253
140.982	616.314
142.807	609.091
144.633	614.438
146.46	619.5
148.285	622.562
150.11	619.624
151.934	615.542
153.757	630.89
155.583	609.666
157.406	609.585
159.229	606.647
161.051	622.566
162.873	621.342
164.697	611.832
166.518	614.037
168.339	625.099
170.159	614.732
171.98	619.222
173.799	603.427
175.619	613.632
177.44	612.122
179.259	613.184
181.077	616.246
182.895	620.45
184.713	600.084
186.53	620.288
188.347	615.922
190.164	610.126
191.98	609.474
193.796	616.25
195.612	595.883
197.427	615.231
199.242	605.15
201.059	603.069
202.873	609.559
204.686	601.764
206.5	606.254
208.313	610.459
210.126	600.378
211.938	602.582
213.75	604.215
215.562	600.42
217.373	602.625
219.184	592.83
220.993	587.606
222.803	591.239
224.613	599.444
226.422	580.505
228.232	592.996
230.04	587.2
231.849	590.262
233.657	597.324
235.465	575.529
237.272	582.305
239.079	583.938
240.886	589.857
242.693	574.633
244.497	591.409
246.302	578.471
248.108	590.676
249.913	596.88
251.717	578.228
253.521	587.004
255.325	595.494
257.127	585.413
258.93	585.618
260.733	590.68
262.535	578.599
264.338	579.661
266.137	580.151
267.939	579.784
269.74	589.703
271.541	579.908
273.341	583.541
275.139	574.603
276.939	581.95
278.738	577.584
280.537	574.36
282.334	559.707
284.132	578.769
285.93	574.117
287.728	565.178
289.523	576.812
291.32	584.159
293.117	574.649
294.911	572.283
296.707	576.773
298.502	578.121
300.295	572.611
302.09	566.816
303.885	578.163
305.677	576.368
307.47	574.858
309.264	588.777
311.055	591.553
312.848	598.329
314.64	582.82
316.43	591.882
318.222	599.801
320.011	578.005
321.802	579.353
323.593	600.129
325.381	597.191
327.171	591.395
328.958	600.172
330.748	581.805
332.535	596.009
334.323	595.928
336.109	603.847
337.897	588.338
339.685	589.685
341.47	587.604
343.257	577.809
345.041	597.442
346.827	583.932
348.611	593.566
350.397	588.628
352.18	567.689
353.962	579.322
355.747	586.956
357.529	584.589
359.312	587.365
361.094	591.855
362.877	582.632
364.658	599.122
366.44	585.041
368.22	597.246
369.999	597.736
371.781	594.512
373.56	595.86
375.34	604.921
377.119	599.698
378.896	596.188
380.676	600.964
382.453	592.883
384.23	602.23
386.009	613.292
387.785	609.211
389.561	613.416
391.338	605.049
393.113	594.397
394.888	593.173
396.665	600.235
398.439	601.868
400.213	596.93
401.988	610.563
403.761	594.482
405.534	601.829
407.306	614.034
409.081	605.382
410.852	594.443
412.624	613.791
414.395	615.424
416.167	612.772
417.938	607.833
419.708	623.752
421.477	617.386
423.249	606.162
425.018	608.366
426.786	616
428.555	599.061
430.323	599.838
432.092	604.042
433.86	600.818
435.627	603.309
437.393	600.942
439.16	609.432
440.926	601.066
442.691	595.556
444.458	608.046
446.223	612.822
447.988	606.17
449.752	606.66
451.516	626.865
453.28	615.07
455.043	616.132
456.806	626.336
458.568	619.112
460.33	620.174
462.092	622.664
463.854	618.869
465.615	620.217
467.378	616.707
469.138	631.483
470.899	635.688
472.658	624.75
474.418	622.954
476.177	611.445
477.936	618.506
479.694	613.283
481.452	624.344
483.21	619.692
484.966	622.754
486.723	624.387
488.48	620.02
490.236	620.796
491.992	614.715
493.748	623.491
495.503	621.125
497.258	631.615
499.013	624.391
500.768	618.024
502.522	635.086
504.276	639.005
506.029	615.781
507.78	625.414
509.533	611.333
511.285	619.538
513.037	627.457
514.789	631.376
516.54	635.581
518.289	639.5
520.04	620.276
521.791	641.337
523.541	648.114
525.29	660.604
527.04	631.38
528.787	636.442
530.536	622.646
532.284	641.137
534.032	620.484
535.778	631.832
537.525	635.465
539.272	624.527
541.019	644.16
542.763	629.793
544.509	642.57
546.255	648.203
548	644.979
549.743	638.041
551.488	626.531
553.232	643.021
554.974	636.369
556.718	632.574
558.462	651.35
560.203	639.554
561.945	654.045
563.688	624.535
565.428	626.168
567.169	642.373
568.911	638.578
570.65	626.497
572.391	637.559
574.129	638.049
575.869	631.111
577.609	637.03
579.346	636.949
581.085	642.01
582.822	643.358
584.56	643.848
586.296	636.91
588.034	642.829
589.771	643.034
591.506	655.238
593.243	660.015
594.978	643.076
596.714	646.71
598.447	644.914
600.183	642.547
601.916	652.181
603.651	637.814
605.383	641.447
607.117	647.652
608.849	652.999
610.582	649.776
612.313	658.552
614.044	664.185
615.776	658.104
617.507	662.308
619.238	667.37
620.968	660.432
622.699	664.065
624.428	659.127
626.156	669.903
627.886	676.679
629.614	694.884
631.342	675.374
633.071	672.151
634.797	660.069
636.526	670.274
638.252	668.765
639.978	654.112
641.705	663.46
643.431	655.093
645.155	653.869
646.88	666.931
648.606	655.421
650.33	662.197
652.053	653.259
653.779	656.607
655.502	656.526
657.224	661.016
658.946	662.078
660.67	649.425
662.392	649.63
664.113	677.549
665.834	670.325
667.556	650.244
669.277	646.449
670.997	662.367
672.716	659.144
674.435	661.92
676.156	661.267
677.875	661.472
679.593	652.534
681.311	675.596
683.029	649.229
684.746	658.005
686.465	660.209
688.182	657.843
689.898	653.476
691.614	655.395
693.33	657.885
695.045	658.09
696.76	659.152
698.475	673.357
700.189	673.275
701.904	664.623
703.619	662.542
705.333	668.175
707.046	675.808
708.759	670.299
710.471	666.503
712.183	676.137
713.895	675.484
715.606	668.832
717.317	667.036
719.028	665.813
720.739	664.589
722.449	662.222
724.159	656.141
725.868	671.488
727.578	682.55
729.286	666.183
730.995	668.674
732.703	668.307
734.409	674.512
736.117	669.002
737.824	683.778
739.531	661.983
741.237	683.616
742.944	659.821
744.65	676.883
746.355	659.944
748.061	666.149
749.766	663.211
751.468	672.273
753.173	656.477
754.877	666.111
756.581	686.029
758.284	678.234
759.987	665.582
761.688	678.929
763.39	682.277
765.092	667.053
766.794	672.686
768.496	660.891
770.195	673.953
771.896	676.729
773.596	662.648
775.296	675.424
776.994	674.485
778.694	679.262
780.393	671.466
782.092	690.814
783.788	665.304
785.487	661.223
787.185	675.428
788.882	667.347
790.578	657.551
792.274	672.042
793.971	676.247
795.666	671.308
797.362	676.084
799.057	662.86
800.751	678.208
802.446	671.556
804.138	675.76
805.833	679.965
807.527	675.884
809.219	672.374
810.912	675.722
812.605	687.355
814.296	690.131
815.989	693.479
817.679	684.826
819.371	700.745
821.06	694.378
822.752	702.869
824.441	703.645
826.131	705.564
827.822	698.626
829.51	709.687
831.199	704.178
832.887	704.097
834.576	696.873
836.262	708.506
837.951	708.425
839.637	697.487
841.323	708.834
843.01	705.896
844.695	695.529
846.382	709.448
848.066	706.51
849.753	702.143
851.436	694.92
853.122	701.981
854.805	708.186
856.488	720.391
858.173	711.738
859.855	715.943
861.539	692.148
863.221	684.924
864.902	721.7
866.585	705.047
868.266	712.109
869.946	714.599
871.628	714.233
873.308	705.009
874.987	696.071
876.668	705.99
878.347	700.48
880.026	695.542
881.704	705.461
883.384	685.951
885.061	696.727
886.739	686.36
888.418	681.994
890.094	684.198
891.771	676.974
893.447	678.893
895.122	685.384
896.799	703.874
898.475	688.65
900.149	696.284
901.824	678.202
903.498	694.407
905.174	678.897
906.847	679.959
908.52	681.307
910.193	684.654
911.866	680.573
913.538	688.778
915.212	686.983
916.883	696.044
918.555	691.106
920.226	681.025
921.896	683.516
923.567	694.292
925.237	692.782
926.907	673.273
928.576	683.477
930.245	693.967
931.914	692.172
933.584	693.805
935.253	689.439
936.92	678.5
938.588	697.562
940.255	682.91
941.922	690.257
943.589	705.605
945.255	706.095
946.921	698.014
948.587	705.647
950.252	695.281
951.917	700.343
953.582	716.833
955.244	692.18
956.909	707.242
958.572	712.304
960.236	691.937
961.899	697.856
963.562	707.489
965.225	696.837
966.887	706.185
968.549	708.961
970.211	705.165
971.872	690.798
973.531	691.003
975.192	712.636
976.852	701.127
978.512	703.903
980.172	725.25
981.831	718.884
983.489	713.66
985.148	707.007
986.806	701.212
988.464	721.131
990.122	700.193
991.778	701.826
993.435	708.316
995.092	703.664
996.749	684.726
998.404	711.216
1000.06	712.278
1001.72	711.34
1003.37	711.259
1005.02	746.32
1006.68	732.24
1008.33	727.873
1009.99	711.22
1011.64	723.139
1013.29	715.915
1014.95	714.691
1016.6	700.039
1018.25	717.386
1019.9	712.734
1021.55	709.51
1023.2	718.857
1024.85	701.634
1026.51	714.981
1028.16	714.043
1029.81	714.819
1031.46	719.309
1033.1	710.371
1034.75	711.433
1036.4	712.781
1038.05	712.128
1039.7	701.19
1041.34	716.823
1042.99	709.885
1044.64	723.518
1046.29	707.151
1047.93	713.07
1049.58	722.132
1051.22	731.765
1052.87	743.113
1054.51	738.461
1056.16	740.094
1057.8	740.87
1059.45	727.36
1061.09	730.708
1062.73	731.198
1064.38	727.403
1066.02	731.322
1067.66	742.098
1069.3	748.017
1070.95	732.507
1072.59	749.283
1074.23	742.631
1075.87	735.121
1077.51	726.469
1079.15	736.102
1080.79	732.021
1082.43	746.226
1084.07	735.002
1085.71	743.492
1087.35	742.554
1088.99	733.044
1090.62	731.82
1092.26	730.025
1093.9	738.801
1095.53	730.434
1097.17	728.639
1098.81	742.844
1100.44	735.334
1102.08	722.11
1103.71	732.886
1105.35	733.948
1106.99	730.724
1108.62	728.357
1110.25	721.705
1111.89	729.624
1113.52	712.4
1115.15	729.462
1116.79	718.238
1118.42	731.014
1120.05	734.362
1121.68	727.995
1123.31	740.485
1124.95	721.261
1126.58	738.894
1128.21	742.242
1129.84	748.161
1131.47	740.651
1133.1	721.427
1134.73	738.489
1136.36	740.123
1137.98	733.47
1139.61	736.818
1141.24	744.451
1142.87	745.513
1144.5	739.717
1146.12	749.636
1147.75	770.698
1149.38	762.331
1151	777.679
1152.63	805.312
1154.26	820.374
1155.88	829.721
1157.51	830.212
1159.13	825.845
1160.76	806.621
1162.38	799.683
1164	779.316
1165.63	754.092
1167.25	768.297
1168.87	760.216
1170.49	733.849
1172.12	745.482
1173.74	753.973
1175.36	739.606
1176.98	748.382
1178.6	750.872
1180.22	744.506
1181.84	743.853
1183.46	742.629
1185.08	757.405
1186.7	766.182
1188.32	769.529
1189.94	771.448
1191.56	752.224
1193.18	756.143
1194.79	752.062
1196.41	743.981
1198.03	743.9
1199.64	735.247
1201.26	737.166
1202.88	749.942
1204.49	761.576
1206.11	750.923
1207.72	739.128
1209.34	743.904
1210.95	752.966
1212.57	736.599
1214.18	755.089
1215.8	745.866
1217.41	735.213
1219.02	721.703
1220.64	741.908
1222.25	739.256
1223.86	725.175
1225.47	742.808
1227.08	739.584
1228.69	733.217
1230.3	720.565
1231.92	730.484
1233.53	733.545
1235.14	723.179
1236.75	712.812
1238.35	733.874
1239.96	728.078
1241.57	724.283
1243.18	714.202
1244.79	731.55
1246.4	726.326
1248.01	731.673
1249.61	737.306
1251.22	738.083
1252.82	747.144
1254.43	727.063
1256.04	740.697
1257.64	754.615
1259.25	747.106
1260.85	734.168
1262.46	738.658
1264.06	736.291
1265.67	755.068
1267.27	746.701
1268.87	746.62
1270.48	750.253
1272.08	743.886
1273.68	746.662
1275.28	740.867
1276.89	750.5
1278.49	749.848
1280.09	740.338
1281.69	746.828
1283.29	728.462
1284.89	746.381
1286.49	728.3
1288.09	740.361
1289.69	748.138
1291.29	738.914
1292.89	740.833
1294.49	729.037
1296.09	752.956
1297.68	740.589
1299.28	743.937
1300.88	751.284
1302.48	728.346
1304.07	759.408
1305.67	748.184
1307.26	746.103
1308.86	750.879
1310.46	744.512
1312.05	736.431
1313.65	754.35
1315.24	753.698
1316.84	758.474
1318.43	761.25
1320.02	758.598
1321.62	743.945
1323.21	744.15
1324.8	739.212
1326.39	760.845
1327.99	743.335
1329.58	766.683
1331.17	761.459
1332.76	750.521
1334.35	753.297
1335.94	749.216
1337.53	750.278
1339.12	750.482
1340.71	730.973
1342.3	745.463
1343.89	753.382
1345.48	743.872
1347.07	757.505
1348.65	753.424
1350.24	732.486
1351.83	764.977
1353.42	761.753
1355	745.1
1356.59	760.162
1358.18	754.081
1359.76	741.429
1361.35	747.919
1362.93	755.266
1364.52	755.185
1366.1	749.39
1367.69	758.166
1369.27	758.085
1370.86	727.147
1372.44	747.066
1374.02	768.128
1375.61	731.761
1377.19	737.394
1378.77	763.885
1380.35	751.518
1381.93	753.151
1383.52	740.499
1385.1	747.275
1386.68	735.765
1388.26	761.113
1389.84	743.032
1391.42	752.951
1393	742.87
1394.58	756.503
1396.16	752.707
1397.74	748.912
1399.31	736.831
1400.89	747.893
1402.47	755.526
1404.05	757.731
1405.63	747.078
1407.2	755.569
1408.78	750.916
1410.36	754.264
1411.93	746.183
1413.51	758.673
1415.08	742.878
1416.66	765.654
1418.23	755.573
1419.81	748.063
1421.38	753.696
1422.95	752.187
1424.53	756.963
1426.1	752.31
1427.68	758.801
1429.25	744.72
1430.82	760.067
1432.39	763.129
1433.96	775.334
1435.54	748.681
1437.11	768.6
1438.68	767.948
1440.25	758.152
1441.82	755.786
1443.39	772.847
1444.96	761.338
1446.53	757.828
1448.1	757.747
1449.67	774.809
1451.23	761.871
1452.8	782.933
1454.37	773.994
1455.94	765.913
1457.5	785.832
1459.07	774.037
1460.64	777.385
1462.21	753.303
1463.77	768.08
1465.34	782.856
1466.9	763.917
1468.47	758.694
1470.03	764.327
1471.6	753.96
1473.16	756.45
1474.72	766.369
1476.29	754.288
1477.85	750.207
1479.42	757.841
1480.98	742.902
1482.54	753.964
1484.1	766.74
1485.66	736.945
1487.23	752.007
1488.79	752.211
1490.35	739.845
1491.91	749.192
1493.47	753.397
1495.03	753.887
1496.59	773.235
1498.15	766.868
1499.71	755.358
1501.27	757.277
1502.83	761.482
1504.39	765.687
1505.94	768.748
1507.5	762.667
1509.06	782.301
1510.62	781.363
1512.17	810.424
1513.73	814.343
1515.29	836.548
1516.84	836.753
1518.4	850.672
1519.95	857.162
1521.51	877.938
1523.06	872.714
1524.62	888.347
1526.17	904.838
1527.72	907.614
1529.28	921.533
1530.83	883.737
1532.38	891.085
1533.94	866.433
1535.49	850.637
1537.04	806.842
1538.59	815.332
1540.15	802.108
1541.7	796.027
1543.25	808.803
1544.8	794.151
1546.35	786.641
1547.9	778.846
1549.45	791.908
1551	776.398
1552.55	776.031
1554.1	762.808
1555.65	773.584
1557.19	783.503
1558.74	775.136
1560.29	762.483
1561.84	765.259
1563.38	756.035
1564.93	774.24
1566.48	762.731
1568.02	774.935
1569.57	767.997
1571.12	754.773
1572.66	765.835
1574.2	775.754
1575.75	765.101
1577.3	754.449
1578.84	781.511
1580.38	763.144
1581.93	760.206
1583.47	769.839
1585.01	762.901
1586.56	748.82
1588.1	757.31
1589.64	761.801
1591.18	767.719
1592.72	761.638
1594.27	774.986
1595.81	762.619
1597.35	756.253
1598.89	765.6
1600.43	748.662
1601.97	768.867
1603.51	769.643
1605.05	770.133
1606.59	776.216
1608.12	772.676
1609.66	752.329
1611.2	761.465
1612.74	761.661
1614.27	771.515
1615.81	750.431
1617.35	756.71
1618.89	749.271
1620.42	747.77
1621.96	743.267
1623.5	761.088
1625.03	758.449
1626.57	765.244
1628.1	743.954
1629.63	768.975
1631.17	765.392
1632.7	757.276
1634.24	756.353
1635.77	743.145
1637.3	770.018
1638.84	761.845
1640.37	766.657
1641.9	757.727
1643.43	750.391
1644.97	763.118
1646.5	754.768
1648.03	756.201
1649.56	768.936
1651.09	760.167
1652.62	761.834
1654.15	770.742
1655.68	771.536
1657.21	765.89
1658.74	763.532
1660.27	755.449
1661.79	769.836
1663.32	765.577
1664.85	768.287
1666.38	758.667
1667.91	770.325
1669.43	762.54
1670.96	766.425
1672.49	768.165
1674.01	767.915
1675.54	761.583
1677.06	762.183
1678.59	759.744
1680.11	764.372
1681.64	768.174
1683.16	766.935
1684.69	765.502
1686.21	765.862
1687.73	757.556
1689.26	760.971
1690.78	758.865
1692.3	750.237
1693.83	758.756
1695.35	748.548
1696.87	751.063
1698.39	760.615
1699.91	753.04
1701.43	760.226
1702.96	751.927
1704.48	756.603
1706	751.607
1707.52	754.795
1709.04	744.423
1710.55	749.948
1712.07	752.246
1713.59	757.369
1715.11	750.581
1716.63	745.487
1718.15	746.869
1719.66	753.764
1721.18	743.921
1722.7	747.058
1724.21	751.214
1725.73	747.818
1727.25	742.108
1728.76	743.42
1730.28	745.412
1731.8	739.033
1733.31	738.171
1734.82	742.385
1736.34	737.018
1737.85	724.687
1739.37	725.479
1740.88	738.141
1742.39	741.185
1743.91	732.26
1745.42	732.218
1746.93	729.941
1748.45	737.335
1749.96	733.455
1751.47	739.451
1752.98	739.951
1754.49	722.946
1756	729.661
1757.51	738.359
1757.73	739.587
1759.25	736.144
1760.77	724.702
1762.28	745.26
1763.8	730.675
1765.31	731.804
1766.83	739.505
1768.34	750.634
1769.86	728.049
1771.37	726.892
1772.89	732.593
1774.4	742.865
1775.92	737.994
1777.43	743.98
1778.94	749.395
1780.46	743.953
1781.97	747.082
1783.48	735.354
1784.99	733.34
1786.51	744.184
1788.02	738.456
1789.53	738.156
1791.04	741.571
1792.55	721.272
1794.06	728.687
1795.57	738.102
1797.08	754.945
1798.59	741.789
1800.1	732.061
1801.61	750.047
1803.12	730.605
1804.63	751.163
1806.13	738.292
1807.64	753.135
1809.15	743.122
1810.66	751.965
1812.16	751.98
1813.67	742.28
1815.18	725.152
1816.68	764.881
1818.19	744.038
1819.7	744.91
1821.2	746.068
1822.71	745.511
1824.21	763.811
1825.72	725.826
1827.22	746.698
1828.72	723.855
1830.23	726.727
1831.73	741.028
1833.23	738.185
1834.74	731.628
1836.24	734.5
1837.74	737.372
1839.24	735.672
1840.75	743.973
1842.25	740.559
1843.75	730.288
1845.25	742.588
1846.75	724.317
1848.25	735.475
1849.75	740.061
1851.25	751.219
1852.75	747.233
1854.25	730.962
1855.75	736.406
1857.25	737.277
1858.75	722.149
1860.24	743.592
1861.74	732.179
1863.24	746.193
1864.74	725.351
1866.23	729.651
1867.73	739.951
1869.23	736.823
1870.72	747.981
1872.22	737.71
1873.71	736.01
1875.21	744.311
1876.7	742.325
1878.2	746.054
1879.69	736.64
1881.19	753.512
1882.68	730.956
1884.18	734.399
1885.67	737.842
1887.16	744.428
1888.66	741.586
1890.15	730.457
1891.64	742.472
1893.13	745.058
1894.62	736.502
1896.11	728.802
1897.61	738.817
1899.1	732.546
1900.59	733.417
1902.08	734.004
1903.57	730.018
1905.06	742.033
1906.55	734.905
1908.04	728.348
1909.53	739.22
1911.02	728.949
1912.5	743.249
1913.99	736.407
1915.48	749.279
1916.97	746.15
1918.46	749.594
1919.94	747.037
1921.43	746.766
1922.92	730.781
1924.4	740.224
1925.89	745.096
1927.37	743.396
1928.86	754.554
1930.34	738.568
1931.83	757.44
1933.31	739.169
1934.8	738.898
1936.28	756.341
1937.77	734.642
1939.25	758.085
1940.73	745.528
1942.22	755.829
1943.7	739.272
1945.18	749.858
1946.66	740.73
1948.14	743.887
1949.63	749.902
1951.11	747.345
1952.59	747.646
1954.07	736.517
1955.55	739.961
1957.03	745.69
1958.51	747.419
1959.99	736.862
