#Acq. time (s)=	15
#Accumulations=	4
#Range (cm-¹)=	50...4000
#Windows=	3
#Autofocus=	Off
#AutoExposure=	Off
#Spike filter=	Multiple accum.
#Delay time (s)=	0
#Binning=	1
#Readout mode=	Signal
#DeNoise=	Off
#ICS correction=	Off
#Dark correction=	Off
#Inst. Process=	Off
#Instrument=	LabRAM HR Evol
#Detector=	Syncerity OE
#Objective=	x100_VIS
#Grating=	600 (500nm)
#ND Filter=	5%
#Laser=	532nm_Edge
#Hole=	100.021
#Range=	Visible
#Project=	Omar
#Sample=	120523
#Site=	ap
#Title=	mz
#Remark=	5 laser intensity
#Date=	12.05.2023 17:23
#Acquired=	12.05.2023 17:23:54
51.0297	20
52.8754	28.4111
54.7185	29.4889
56.5635	27.9001
58.406	34.9778
60.2502	52.0556
62.0919	70.4668
63.9355	92.2112
65.7765	104.622
67.6193	125.033
69.4595	146.778
71.3016	190.522
73.1412	246.267
74.9825	276.678
76.8214	295.756
78.662	317.5
80.5001	345.245
82.34	387.656
84.1774	406.067
86.0166	439.811
87.8532	456.223
89.6917	456.634
91.5276	449.045
93.3632	454.123
95.2006	442.534
97.0355	449.612
98.8721	444.689
100.706	469.1
102.54	466.845
104.376	461.256
106.209	485.667
108.041	487.412
109.876	469.156
111.708	488.901
113.542	498.645
115.373	505.056
117.204	498.134
119.036	475.878
120.867	497.623
122.697	488.034
124.526	489.112
126.357	508.19
128.186	482.601
130.014	485.679
131.845	480.09
133.672	483.167
135.5	504.245
137.327	505.323
139.155	489.734
140.982	504.812
142.807	498.556
144.633	521.634
146.46	528.712
148.285	503.79
150.11	512.868
151.934	515.945
153.757	531.69
155.583	513.434
157.406	534.512
159.229	520.923
161.051	521.334
162.873	520.412
164.697	508.157
166.518	527.234
168.339	505.646
170.159	519.39
171.98	506.468
173.799	531.546
175.619	518.623
177.44	527.701
179.259	534.779
181.077	535.19
182.895	522.935
184.713	516.679
186.53	524.424
188.347	526.835
190.164	531.912
191.98	536.99
193.796	522.068
195.612	540.479
197.427	547.557
199.242	543.301
201.059	535.046
202.873	542.79
204.686	526.535
206.5	554.946
208.313	522.69
210.126	550.435
211.938	536.179
213.75	536.59
215.562	537.002
217.373	529.413
219.184	541.824
220.993	524.235
222.803	532.646
224.613	548.391
226.422	549.468
228.232	547.213
230.04	548.957
231.849	554.702
233.657	531.779
235.465	538.857
237.272	553.935
239.079	542.346
240.886	549.424
242.693	536.502
244.497	540.246
246.302	564.657
248.108	553.735
249.913	537.48
251.717	557.891
253.521	552.302
255.325	552.046
257.127	559.124
258.93	548.202
260.733	555.28
262.535	562.358
264.338	562.102
266.137	553.847
267.939	550.258
269.74	553.335
271.541	554.413
273.341	566.158
275.139	555.902
276.939	544.98
278.738	562.724
280.537	563.802
282.334	572.213
284.132	563.291
285.93	561.036
287.728	550.113
289.523	567.191
291.32	568.269
293.117	560.68
294.911	562.425
296.707	562.836
298.502	565.247
300.295	556.991
302.09	563.402
303.885	568.48
305.677	567.558
307.47	570.636
309.264	579.714
311.055	572.125
312.848	585.869
314.64	582.28
316.43	581.358
318.222	561.769
320.011	556.847
321.802	585.258
323.593	565.669
325.381	570.081
327.171	579.158
328.958	570.903
330.748	585.314
332.535	577.725
334.323	570.136
336.109	576.547
337.897	574.292
339.685	574.036
341.47	577.114
343.257	572.192
345.041	579.936
346.827	585.681
348.611	583.425
350.397	575.17
352.18	583.581
353.962	591.992
355.747	587.07
357.529	579.481
359.312	561.892
361.094	584.97
362.877	588.048
364.658	580.459
366.44	584.87
368.22	569.281
369.999	605.025
371.781	574.77
373.56	597.181
375.34	588.259
377.119	595.336
378.896	601.748
380.676	596.159
382.453	587.903
384.23	616.314
386.009	596.726
387.785	611.137
389.561	596.214
391.338	615.959
393.113	607.037
394.888	594.115
396.665	601.859
398.439	607.603
400.213	599.348
401.988	616.426
403.761	603.503
405.534	602.581
407.306	612.992
409.081	610.737
410.852	609.815
412.624	612.226
414.395	625.97
416.167	611.715
417.938	614.793
419.708	615.87
421.477	618.948
423.249	604.026
425.018	609.104
426.786	622.182
428.555	611.259
430.323	585.67
432.092	604.082
433.86	615.159
435.627	592.904
437.393	611.315
439.16	630.393
440.926	590.804
442.691	625.882
444.458	637.626
446.223	622.037
447.988	630.448
449.752	631.526
451.516	609.937
453.28	635.015
455.043	621.426
456.806	618.504
458.568	627.582
460.33	617.326
462.092	633.071
463.854	641.482
465.615	635.893
467.378	642.971
469.138	632.049
470.899	641.126
472.658	625.538
474.418	648.615
476.177	652.36
477.936	645.438
479.694	647.182
481.452	632.926
483.21	630.671
484.966	645.082
486.723	659.493
488.48	651.904
490.236	642.982
491.992	648.06
493.748	629.138
495.503	652.882
497.258	651.96
499.013	660.371
500.768	646.116
502.522	636.527
504.276	656.938
506.029	667.349
507.78	639.76
509.533	637.505
511.285	650.582
513.037	662.327
514.789	636.738
516.54	641.149
518.289	646.227
520.04	660.638
521.791	656.382
523.541	646.127
525.29	657.871
527.04	658.949
528.787	671.36
530.536	652.438
532.284	679.516
534.032	667.927
535.778	673.005
537.525	662.749
539.272	664.494
541.019	669.572
542.763	661.316
544.509	679.06
546.255	688.138
548	691.216
549.743	692.294
551.488	680.705
553.232	668.449
554.974	692.194
556.718	668.605
558.462	669.016
560.203	678.761
561.945	673.172
563.688	658.25
565.428	681.327
567.169	673.738
568.911	676.816
570.65	661.894
572.391	673.638
574.129	688.05
575.869	675.127
577.609	692.205
579.346	689.283
581.085	690.361
582.822	685.439
584.56	691.183
586.296	681.594
588.034	682.005
589.771	685.75
591.506	684.161
593.243	676.572
594.978	658.983
596.714	680.061
598.447	674.472
600.183	694.883
601.916	678.628
603.651	708.372
605.383	671.45
607.117	667.194
608.849	688.939
610.582	681.35
612.313	735.761
614.044	692.839
615.776	703.917
617.507	680.328
619.238	696.739
620.968	691.15
622.699	708.228
624.428	716.639
626.156	715.717
627.886	699.461
629.614	717.872
631.342	710.284
633.071	719.361
634.797	724.439
636.526	718.184
638.252	712.595
639.978	732.339
641.705	725.417
643.431	716.495
645.155	724.906
646.88	723.984
648.606	735.728
650.33	720.806
652.053	719.217
653.779	686.962
655.502	720.706
657.224	727.784
658.946	728.862
660.67	745.939
662.392	725.684
664.113	723.428
665.834	696.506
667.556	718.917
669.277	718.662
670.997	723.74
672.716	727.484
674.435	711.228
676.156	718.306
677.875	717.384
679.593	724.462
681.311	716.873
683.029	715.284
684.746	736.362
686.465	730.773
688.182	719.851
689.898	714.929
691.614	728.006
693.33	746.418
695.045	725.495
696.76	719.906
698.475	719.651
700.189	731.395
701.904	727.806
703.619	714.884
705.333	719.962
707.046	729.707
708.759	738.784
710.471	725.195
712.183	723.607
713.895	734.684
715.606	753.096
717.317	743.507
719.028	733.251
720.739	742.329
722.449	744.74
724.159	749.151
725.868	734.229
727.578	746.64
729.286	757.718
730.995	744.796
732.703	749.874
734.409	750.285
736.117	728.696
737.824	746.44
739.531	738.185
741.237	744.596
742.944	745.674
744.65	756.751
746.355	747.829
748.061	738.907
749.766	731.318
751.468	741.063
753.173	744.14
754.877	751.885
756.581	752.296
758.284	751.374
759.987	744.452
761.688	726.863
763.39	755.94
765.092	749.685
766.794	747.429
768.496	755.841
770.195	732.252
771.896	735.329
773.596	726.407
775.296	748.818
776.994	751.23
778.694	774.307
780.393	769.385
782.092	751.13
783.788	760.207
785.487	754.619
787.185	776.363
788.882	754.774
790.578	725.852
792.274	729.596
793.971	739.341
795.666	750.419
797.362	758.83
799.057	731.908
800.751	751.652
802.446	765.396
804.138	765.141
805.833	764.219
807.527	758.63
809.219	756.374
810.912	762.119
812.605	765.863
814.296	763.608
815.989	785.352
817.679	791.097
819.371	773.508
821.06	767.919
822.752	786.997
824.441	775.408
826.131	775.819
827.822	790.897
829.51	798.641
831.199	769.052
832.887	786.13
834.576	797.875
836.262	806.952
837.951	763.363
839.637	789.775
841.323	770.852
843.01	789.93
844.695	791.675
846.382	795.419
848.066	778.497
849.753	786.908
851.436	792.653
853.122	774.397
854.805	789.475
856.488	789.886
858.173	806.964
859.855	776.708
861.539	794.453
863.221	777.53
864.902	792.608
866.585	790.353
868.266	784.097
869.946	793.842
871.628	789.586
873.308	811.331
874.987	799.742
876.668	784.153
878.347	801.897
880.026	798.308
881.704	793.386
883.384	799.797
885.061	776.208
886.739	794.62
888.418	798.364
890.094	796.108
891.771	792.52
893.447	795.597
895.122	778.675
896.799	785.086
898.475	783.497
900.149	812.575
901.824	802.986
903.498	776.064
905.174	789.809
906.847	795.553
908.52	787.964
910.193	804.375
911.866	814.12
913.538	817.198
915.212	798.942
916.883	796.687
918.555	811.098
920.226	790.176
921.896	809.92
923.567	800.998
925.237	805.409
926.907	823.153
928.576	801.564
930.245	805.976
931.914	821.72
933.584	815.464
935.253	815.876
936.92	822.953
938.588	821.365
940.255	819.776
941.922	802.187
943.589	808.598
945.255	803.676
946.921	832.087
948.587	806.498
950.252	812.242
951.917	806.654
953.582	831.731
955.244	840.143
956.909	826.554
958.572	834.965
960.236	824.709
961.899	819.12
963.562	827.531
965.225	823.943
966.887	811.02
968.549	826.765
970.211	850.509
971.872	828.254
973.531	817.332
975.192	832.409
976.852	833.487
978.512	827.898
980.172	832.976
981.831	821.387
983.489	828.465
985.148	805.543
986.806	821.954
988.464	816.365
990.122	836.11
991.778	835.854
993.435	834.932
995.092	808.676
996.749	858.421
998.404	841.499
1000.06	830.576
1001.72	819.654
1003.37	832.065
1005.02	836.476
1006.68	848.888
1008.33	837.299
1009.99	827.043
1011.64	831.454
1013.29	824.532
1014.95	832.943
1016.6	855.354
1018.25	837.765
1019.9	838.177
1021.55	857.921
1023.2	821.665
1024.85	833.41
1026.51	818.488
1028.16	840.232
1029.81	826.643
1031.46	846.388
1033.1	854.799
1034.75	843.21
1036.4	836.955
1038.05	846.699
1039.7	855.11
1041.34	844.188
1042.99	865.932
1044.64	851.01
1046.29	845.421
1047.93	833.832
1049.58	860.244
1051.22	838.655
1052.87	875.733
1054.51	840.81
1056.16	876.555
1057.8	868.966
1059.45	860.044
1061.09	862.455
1062.73	863.533
1064.38	874.61
1066.02	875.688
1067.66	868.099
1069.3	873.844
1070.95	875.588
1072.59	875.333
1074.23	885.744
1075.87	866.822
1077.51	873.899
1079.15	885.644
1080.79	862.055
1082.43	852.466
1084.07	884.211
1085.71	888.622
1087.35	863.033
1088.99	868.111
1090.62	879.188
1092.26	907.599
1093.9	866.011
1095.53	878.422
1097.17	876.166
1098.81	871.244
1100.44	878.322
1102.08	868.066
1103.71	859.144
1105.35	870.889
1106.99	881.966
1108.62	866.378
1110.25	856.122
1111.89	880.533
1113.52	866.278
1115.15	862.022
1116.79	870.433
1118.42	880.844
1120.05	889.922
1121.68	883.667
1123.31	858.078
1124.95	857.155
1126.58	872.9
1128.21	869.978
1129.84	860.389
1131.47	880.133
1133.1	865.878
1134.73	884.956
1136.36	894.7
1137.98	891.111
1139.61	866.189
1141.24	875.267
1142.87	891.678
1144.5	905.422
1146.12	892.5
1147.75	878.245
1149.38	891.989
1151	891.067
1152.63	920.811
1154.26	907.889
1155.88	917.634
1157.51	932.045
1159.13	909.789
1160.76	911.534
1162.38	897.278
1164	923.689
1165.63	908.1
1167.25	887.845
1168.87	892.256
1170.49	900.667
1172.12	901.745
1173.74	924.823
1175.36	907.901
1176.98	889.645
1178.6	909.389
1180.22	900.467
1181.84	911.545
1183.46	919.956
1185.08	936.367
1186.7	920.778
1188.32	927.856
1189.94	920.934
1191.56	935.345
1193.18	921.09
1194.79	919.501
1196.41	923.912
1198.03	952.99
1199.64	926.067
1201.26	920.479
1202.88	916.89
1204.49	905.301
1206.11	915.712
1207.72	911.456
1209.34	923.868
1210.95	927.612
1212.57	932.69
1214.18	937.768
1215.8	946.845
1217.41	931.923
1219.02	919.668
1220.64	924.079
1222.25	903.156
1223.86	913.568
1225.47	927.312
1227.08	939.723
1228.69	916.134
1230.3	899.212
1231.92	929.623
1233.53	912.701
1235.14	938.446
1236.75	888.19
1238.35	927.268
1239.96	907.012
1241.57	945.423
1243.18	919.168
1244.79	903.579
1246.4	922.657
1248.01	917.068
1249.61	925.479
1251.22	928.557
1252.82	928.968
1254.43	928.046
1256.04	927.124
1257.64	931.535
1259.25	913.946
1260.85	915.69
1262.46	931.435
1264.06	931.179
1265.67	956.257
1267.27	964.668
1268.87	932.413
1270.48	944.157
1272.08	943.902
1273.68	924.979
1275.28	951.39
1276.89	952.468
1278.49	975.546
1280.09	952.624
1281.69	935.035
1283.29	955.446
1284.89	963.857
1286.49	930.935
1288.09	939.013
1289.69	947.091
1291.29	948.835
1292.89	950.58
1294.49	939.657
1296.09	966.068
1297.68	953.813
1299.28	959.557
1300.88	963.302
1302.48	979.046
1304.07	979.458
1305.67	955.202
1307.26	958.946
1308.86	950.691
1310.46	957.102
1312.05	962.846
1313.65	962.591
1315.24	950.335
1316.84	963.413
1318.43	955.824
1320.02	978.235
1321.62	977.313
1323.21	960.391
1324.8	964.802
1326.39	969.213
1327.99	958.291
1329.58	966.702
1331.17	985.78
1332.76	956.858
1334.35	971.269
1335.94	977.013
1337.53	952.091
1339.12	958.502
1340.71	967.58
1342.3	967.991
1343.89	1095.07
1345.48	1075.48
1347.07	975.224
1348.65	988.969
1350.24	991.38
1351.83	979.125
1353.42	959.536
1355	965.28
1356.59	974.358
1358.18	972.102
1359.76	969.18
1361.35	980.925
1362.93	968.669
1364.52	959.747
1366.1	974.825
1367.69	962.569
1369.27	977.647
1370.86	1010.72
1372.44	982.469
1374.02	962.214
1375.61	977.958
1377.19	969.703
1378.77	990.114
1380.35	974.525
1381.93	967.603
1383.52	979.347
1385.1	964.425
1386.68	982.836
1388.26	985.914
1389.84	980.992
1391.42	1000.07
1393	1002.48
1394.58	984.892
1396.16	989.97
1397.74	993.714
1399.31	972.125
1400.89	986.536
1402.47	991.614
1404.05	1010.69
1405.63	975.103
1407.2	988.848
1408.78	995.925
1410.36	1005
1411.93	1000.75
1413.51	997.825
1415.08	1031.57
1416.66	995.981
1418.23	1003.73
1419.81	985.47
1421.38	1017.88
1422.95	1010.96
1424.53	1012.04
1426.1	979.114
1427.68	984.859
1429.25	1015.27
1430.82	1033.68
1432.39	989.425
1433.96	1013.84
1435.54	1022.91
1437.11	1010.66
1438.68	1019.74
1440.25	1038.15
1441.82	1031.23
1443.39	1026.97
1444.96	1008.71
1446.53	1023.79
1448.1	1008.87
1449.67	1019.28
1451.23	1017.69
1452.8	1033.44
1454.37	1026.51
1455.94	1020.26
1457.5	1026
1459.07	1027.08
1460.64	1017.49
1462.21	1003.9
1463.77	1022.98
1465.34	1031.39
1466.9	1015.8
1468.47	1021.55
1470.03	1001.96
1471.6	1003.7
1473.16	1015.45
1474.72	1033.86
1476.29	1036.27
1477.85	1004.01
1479.42	1007.09
1480.98	995.504
1482.54	1015.25
1484.1	1024.33
1485.66	1009.4
1487.23	1008.48
1488.79	1008.23
1490.35	1007.3
1491.91	1013.72
1493.47	1027.46
1495.03	985.204
1496.59	1024.28
1498.15	1048.03
1499.71	1033.1
1501.27	1025.52
1502.83	1031.26
1504.39	1029.67
1505.94	1008.75
1507.5	1043.16
1509.06	1036.24
1510.62	1038.65
1512.17	1059.73
1513.73	1062.8
1515.29	1048.55
1516.84	1076.96
1518.4	1058.7
1519.95	1059.12
1521.51	1104.86
1523.06	1068.6
1524.62	1095.02
1526.17	1066.09
1527.72	1065.84
1529.28	1092.25
1530.83	1072.66
1532.38	1077.74
1533.94	1082.82
1535.49	1058.56
1537.04	1085.64
1538.59	1075.38
1540.15	1063.79
1541.7	1077.54
1543.25	1078.62
1544.8	1070.36
1546.35	1058.1
1547.9	1062.52
1549.45	1073.59
1551	1040.67
1552.55	1049.75
1554.1	1054.16
1555.65	1054.57
1557.19	1069.65
1558.74	1071.39
1560.29	1068.47
1561.84	1076.88
1563.38	1067.96
1564.93	1067.7
1566.48	1056.78
1568.02	1054.53
1569.57	1045.6
1571.12	1064.02
1572.66	1056.43
1574.2	1067.5
1575.75	1071.92
1577.3	1078.99
1578.84	1055.41
1580.38	1061.15
1581.93	1068.89
1583.47	1066.64
1585.01	1073.05
1586.56	1054.79
1588.1	1041.21
1589.64	1070.28
1591.18	1039.36
1592.72	1083.77
1594.27	1060.85
1595.81	1083.26
1597.35	1043.01
1598.89	1043.42
1600.43	1065.16
1601.97	1074.91
1603.51	1057.32
1605.05	1044.39
1606.59	1073.28
1608.12	1052.38
1609.66	1047.6
1611.2	1040.63
1612.74	1047.38
1614.27	1051.95
1615.81	1035.34
1617.35	1033.39
1618.89	1054.71
1620.42	1058.93
1621.96	1049.24
1623.5	1052.01
1625.03	1058.34
1626.57	1083.17
1628.1	1064.93
1629.63	1060.21
1631.17	1042.62
1632.7	1072.52
1634.24	1060.62
1635.77	1057
1637.3	1053.87
1638.84	1076.48
1640.37	1049.86
1641.9	1061.15
1643.43	1073.4
1644.97	1041.72
1646.5	1055.15
1648.03	1041.14
1649.56	1055.4
1651.09	1057.26
1652.62	1068.06
1654.15	1078.72
1655.68	1068.23
1657.21	1058.51
1658.74	1075.08
1660.27	1084.66
1661.79	1058.09
1663.32	1081.29
1664.85	1076.88
1666.38	1069.28
1667.91	1079.15
1669.43	1078.89
1670.96	1070.35
1672.49	1076.74
1674.01	1085.47
1675.54	1057.7
1677.06	1062.71
1678.59	1070.36
1680.11	1068.86
1681.64	1096.8
1683.16	1075.13
1684.69	1091.2
1686.21	1074.52
1687.73	1081.13
1689.26	1049.51
1690.78	1072.61
1692.3	1069.6
1693.83	1076.08
1695.35	1073.78
1696.87	1071.05
1698.39	1059.33
1699.91	1065.02
1701.43	1071.67
1702.96	1070.03
1704.48	1075.82
1706	1052.06
1707.52	1069.94
1709.04	1047.01
1710.55	1065.4
1712.07	1065.51
1713.59	1065.51
1715.11	1048.93
1716.63	1038
1718.15	1067.84
1719.66	1053.94
1721.18	1053.21
1722.7	1052.03
1724.21	1037.28
1725.73	1047.7
1727.25	1047.69
1728.76	1056.65
1730.28	1041.24
1731.8	1050.56
1733.31	1035.33
1734.82	1020.8
1736.34	1025.18
1737.85	1033.21
1739.37	1021.98
1740.88	1027.19
1742.39	1043.78
1743.91	1031.77
1745.42	1027.57
1746.93	1027.91
1748.45	1028.66
1749.96	1051.92
1751.47	1025.13
1752.98	1031.04
1754.49	1040.09
1756	1039.12
1757.51	1037.89
1757.73	1037.43
1759.25	1028.54
1760.77	1008.33
1762.28	1028.11
1763.8	1049.22
1765.31	1049.67
1766.83	1031.45
1768.34	1035.23
1769.86	1042.35
1771.37	1039.46
1772.89	1013.91
1774.4	1026.36
1775.92	1047.47
1777.43	1041.25
1778.94	1027.03
1780.46	1062.15
1781.97	1031.26
1783.48	1065.71
1784.99	1050.83
1786.51	1063.27
1788.02	1026.39
1789.53	1045.5
1791.04	1042.62
1792.55	1065.73
1794.06	1054.18
1795.57	1041.96
1797.08	1032.41
1798.59	1037.52
1800.1	1058.64
1801.61	1042.42
1803.12	1052.2
1804.63	1054.65
1806.13	1047.1
1807.64	1052.88
1809.15	1059.99
1810.66	1039.11
1812.16	1056.22
1813.67	1053.34
1815.18	1063.78
1816.68	1057.57
1818.19	1031.35
1819.7	1035.8
1821.2	1067.58
1822.71	1046.02
1824.21	1045.81
1825.72	1054.92
1827.22	1055.37
1828.72	1046.48
1830.23	1059.6
1831.73	1046.05
1833.23	1055.83
1834.74	1056.27
1836.24	1060.72
1837.74	1041.17
1839.24	1030.29
1840.75	1050.07
1842.25	1037.85
1843.75	1038.96
1845.25	1068.74
1846.75	1044.52
1848.25	1037.64
1849.75	1039.42
1851.25	1026.54
1852.75	1042.98
1854.25	1078.76
1855.75	1031.21
1857.25	1036.33
1858.75	1056.77
1860.24	1031.22
1861.74	1041.67
1863.24	1034.79
1864.74	1050.57
1866.23	1025.01
1867.73	1061.46
1869.23	1045.24
1870.72	1038.36
1872.22	1049.47
1873.71	1035.25
1875.21	1049.7
1876.7	1018.15
1878.2	1042.6
1879.69	1051.71
1881.19	1039.49
1882.68	1042.61
1884.18	1071.72
1885.67	1040.17
1887.16	1045.95
1888.66	1059.07
1890.15	1026.85
1891.64	1051.3
1893.13	1041.74
1894.62	1037.53
1896.11	1045.31
1897.61	1034.42
1899.1	1044.87
1900.59	1056.65
1902.08	1054.43
1903.57	1042.21
1905.06	1025.33
1906.55	1042.44
1908.04	1049.56
1909.53	1060
1911.02	1051.12
1912.5	1050.23
1913.99	1040.68
1915.48	1067.8
1916.97	1062.24
1918.46	1054.03
1919.94	1042.47
1921.43	1050.25
1922.92	1043.37
1924.4	1065.15
1925.89	1059.6
1927.37	1048.71
1928.86	1075.83
1930.34	1062.28
1931.83	1037.39
1933.31	1083.17
1934.8	1039.62
1936.28	1054.73
1937.77	1057.18
1939.25	1078.3
1940.73	1044.74
1942.22	1046.53
1943.7	1046.97
1945.18	1050.75
1946.66	1067.2
1948.14	1064.32
1949.63	1056.1
1951.11	1052.55
1952.59	1074.33
1954.07	1060.78
1955.55	1033.89
1957.03	1059
1958.51	1055.45
1959.99	1073.23
1961.47	1044.35
