#Acq. time (s)=	15
#Accumulations=	4
#Range (cm-¹)=	50...4000
#Windows=	3
#Autofocus=	Off
#AutoExposure=	Off
#Spike filter=	Multiple accum.
#Delay time (s)=	0
#Binning=	1
#Readout mode=	Signal
#DeNoise=	Off
#ICS correction=	Off
#Dark correction=	Off
#Inst. Process=	Off
#Instrument=	LabRAM HR Evol
#Detector=	Syncerity OE
#Objective=	x100_VIS
#Grating=	600 (500nm)
#ND Filter=	5%
#Laser=	532nm_Edge
#Hole=	100.021
#Range=	Visible
#Project=	Omar
#Sample=	120523
#Site=	ap
#Title=	mz
#Remark=	5 laser intensity
#Date=	12.05.2023 17:17
#Acquired=	12.05.2023 17:17:49
51.0297	17.3333
52.8754	26.5699
54.7185	28.473
56.5635	31.0429
58.406	35.6128
60.2502	48.1826
62.0919	62.0858
63.9355	85.3223
65.7765	95.2255
67.6193	120.462
69.4595	141.699
71.3016	164.268
73.1412	210.838
74.9825	256.075
76.8214	269.978
78.662	301.215
80.5001	307.118
82.34	337.688
84.1774	360.924
86.0166	384.827
87.8532	414.73
89.6917	405.967
91.5276	414.537
93.3632	398.44
95.2006	397.677
97.0355	409.58
98.8721	419.483
100.706	423.386
102.54	405.289
104.376	415.859
106.209	441.762
108.041	420.332
109.876	437.569
111.708	446.139
113.542	432.042
115.373	431.278
117.204	464.515
119.036	450.418
120.867	436.988
122.697	428.224
124.526	446.128
126.357	433.364
128.186	449.267
130.014	441.171
131.845	441.074
133.672	444.31
135.5	455.547
137.327	446.783
139.155	450.02
140.982	461.923
142.807	465.826
144.633	453.063
146.46	468.966
148.285	459.536
150.11	458.106
151.934	473.342
153.757	461.245
155.583	469.815
157.406	450.385
159.229	484.955
161.051	466.191
162.873	482.761
164.697	469.331
166.518	444.568
168.339	471.138
170.159	494.374
171.98	476.277
173.799	472.18
175.619	465.417
177.44	478.654
179.259	467.223
181.077	459.793
182.895	471.03
184.713	483.6
186.53	484.836
188.347	488.739
190.164	483.976
191.98	488.546
193.796	496.449
195.612	483.019
197.427	495.589
199.242	487.492
201.059	489.395
202.873	475.298
204.686	485.868
206.5	484.438
208.313	478.341
210.126	475.578
211.938	484.147
213.75	493.384
215.562	503.287
217.373	495.857
219.184	485.76
220.993	486.33
222.803	476.233
224.613	492.137
226.422	482.706
228.232	495.276
230.04	488.513
231.849	505.083
233.657	480.986
235.465	488.889
237.272	485.459
239.079	504.029
240.886	501.932
242.693	501.168
244.497	495.072
246.302	484.308
248.108	505.545
249.913	498.115
251.717	499.351
253.521	495.254
255.325	499.824
257.127	510.394
258.93	509.63
260.733	511.534
262.535	502.104
264.338	492.673
266.137	501.91
267.939	493.813
269.74	508.383
271.541	514.286
273.341	518.189
275.139	503.426
276.939	492.662
278.738	511.232
280.537	508.469
282.334	513.039
284.132	490.942
285.93	519.512
287.728	506.748
289.523	501.985
291.32	501.888
293.117	515.791
294.911	511.028
296.707	516.931
298.502	513.501
300.295	517.404
302.09	527.307
303.885	497.21
305.677	516.447
307.47	539.683
309.264	520.92
311.055	527.49
312.848	530.06
314.64	508.629
316.43	543.866
318.222	539.102
320.011	525.672
321.802	525.576
323.593	537.479
325.381	542.715
327.171	542.618
328.958	535.188
330.748	521.091
332.535	538.995
334.323	542.231
336.109	543.468
337.897	538.038
339.685	531.274
341.47	560.511
343.257	547.081
345.041	534.984
346.827	528.22
348.611	503.457
350.397	534.693
352.18	527.93
353.962	526.5
355.747	529.736
357.529	547.639
359.312	530.876
361.094	548.779
362.877	564.016
364.658	518.585
366.44	536.489
368.22	553.058
369.999	561.628
371.781	548.865
373.56	537.435
375.34	532.005
377.119	558.574
378.896	542.478
380.676	547.047
382.453	558.951
384.23	550.187
386.009	543.424
387.785	555.327
389.561	563.897
391.338	580.467
393.113	558.37
394.888	555.606
396.665	544.843
398.439	557.413
400.213	541.983
401.988	559.219
403.761	550.456
405.534	566.359
407.306	555.595
409.081	558.165
410.852	553.402
412.624	569.972
414.395	581.208
416.167	555.778
417.938	555.681
419.708	559.584
421.477	568.154
423.249	572.057
425.018	545.294
426.786	545.197
428.555	553.767
430.323	551.67
432.092	560.907
433.86	564.143
435.627	556.713
437.393	560.616
439.16	571.853
440.926	565.089
442.691	574.993
444.458	571.562
446.223	577.466
447.988	568.035
449.752	566.605
451.516	579.842
453.28	574.412
455.043	572.982
456.806	592.218
458.568	582.788
460.33	582.691
462.092	583.261
463.854	593.831
465.615	588.401
467.378	590.971
469.138	600.207
470.899	584.11
472.658	588.68
474.418	591.917
476.177	598.486
477.936	601.056
479.694	601.626
481.452	602.196
483.21	593.433
484.966	609.336
486.723	603.239
488.48	589.809
490.236	591.045
491.992	605.615
493.748	594.852
495.503	601.422
497.258	616.658
499.013	599.895
500.768	588.465
502.522	592.368
504.276	598.938
506.029	605.507
507.78	610.077
509.533	607.98
511.285	597.217
513.037	607.12
514.789	605.023
516.54	590.927
518.289	609.496
520.04	604.066
521.791	608.636
523.541	617.873
525.29	621.776
527.04	620.346
528.787	618.916
530.536	612.152
532.284	606.055
534.032	602.625
535.778	622.528
537.525	621.098
539.272	637.001
541.019	621.571
542.763	625.474
544.509	616.711
546.255	619.281
548	615.851
549.743	619.087
551.488	624.324
553.232	642.227
554.974	626.797
556.718	628.033
558.462	647.27
560.203	633.84
561.945	627.743
563.688	635.646
565.428	626.216
567.169	615.452
568.911	620.022
570.65	640.592
572.391	634.495
574.129	622.399
575.869	615.635
577.609	620.205
579.346	622.108
581.085	634.678
582.822	634.581
584.56	643.818
586.296	633.054
588.034	641.624
589.771	622.194
591.506	610.097
593.243	642
594.978	625.904
596.714	615.807
598.447	633.043
600.183	636.946
601.916	625.516
603.651	630.753
605.383	649.323
607.117	631.893
608.849	629.129
610.582	645.032
612.313	634.269
614.044	656.172
615.776	656.075
617.507	636.645
619.238	646.548
620.968	648.451
622.699	651.021
624.428	652.258
626.156	658.828
627.886	647.397
629.614	640.634
631.342	653.87
633.071	669.107
634.797	667.01
636.526	652.247
638.252	658.15
639.978	663.386
641.705	675.29
643.431	673.859
645.155	646.429
646.88	672.333
648.606	674.902
650.33	674.806
652.053	672.042
653.779	678.612
655.502	658.515
657.224	683.085
658.946	662.322
660.67	664.891
662.392	654.128
664.113	680.698
665.834	671.268
667.556	679.171
669.277	677.741
670.997	668.977
672.716	670.214
674.435	678.784
676.156	646.687
677.875	659.257
679.593	649.827
681.311	665.063
683.029	681.633
684.746	664.203
686.465	659.439
688.182	667.343
689.898	669.912
691.614	673.816
693.33	659.052
695.045	671.622
696.76	679.525
698.475	666.762
700.189	671.998
701.904	670.568
703.619	677.805
705.333	677.041
707.046	682.944
708.759	688.181
710.471	662.751
712.183	669.32
713.895	677.89
715.606	684.46
717.317	675.697
719.028	700.267
720.739	693.503
722.449	688.073
724.159	699.976
725.868	685.213
727.578	687.783
729.286	677.686
730.995	684.256
732.703	679.492
734.409	680.062
736.117	678.632
737.824	693.202
739.531	670.438
741.237	689.008
742.944	698.911
744.65	666.815
746.355	694.051
748.061	669.288
749.766	699.857
751.468	684.427
753.173	687.664
754.877	676.9
756.581	706.137
758.284	692.04
759.987	679.943
761.688	665.846
763.39	677.75
765.092	698.986
766.794	684.889
768.496	695.459
770.195	687.362
771.896	683.932
773.596	681.169
775.296	685.739
776.994	678.308
778.694	697.545
780.393	681.448
782.092	694.018
783.788	681.255
785.487	689.824
787.185	671.728
788.882	692.964
790.578	710.867
792.274	709.437
793.971	678.007
795.666	690.577
797.362	694.48
799.057	689.05
800.751	692.953
802.446	660.856
804.138	702.093
805.833	700.663
807.527	714.566
809.219	686.469
810.912	687.706
812.605	681.609
814.296	710.179
815.989	692.082
817.679	700.652
819.371	721.221
821.06	699.791
822.752	695.695
824.441	716.265
826.131	724.834
827.822	716.738
829.51	702.641
831.199	703.211
832.887	685.78
834.576	707.017
836.262	702.253
837.951	708.823
839.637	696.727
841.323	715.963
843.01	707.2
844.695	713.103
846.382	729.673
848.066	722.242
849.753	722.146
851.436	714.716
853.122	717.285
854.805	722.522
856.488	730.425
858.173	758.995
859.855	703.565
861.539	711.468
863.221	734.038
864.902	722.608
866.585	732.511
868.266	711.747
869.946	717.651
871.628	702.887
873.308	728.124
874.987	720.694
876.668	745.93
878.347	717.167
880.026	724.403
881.704	718.306
883.384	724.209
885.061	720.779
886.739	720.683
888.418	707.252
890.094	735.822
891.771	712.392
893.447	708.295
895.122	718.199
896.799	724.102
898.475	716.672
900.149	707.908
901.824	733.145
903.498	708.381
905.174	720.284
906.847	715.521
908.52	712.757
910.193	710.661
911.866	723.897
913.538	715.134
915.212	699.703
916.883	724.94
918.555	737.51
920.226	729.413
921.896	731.983
923.567	726.553
925.237	718.456
926.907	727.692
928.576	706.262
930.245	722.832
931.914	710.069
933.584	719.972
935.253	732.542
936.92	736.445
938.588	745.681
940.255	726.251
941.922	716.821
943.589	730.058
945.255	730.628
946.921	720.531
948.587	738.434
950.252	739.004
951.917	736.24
953.582	739.477
955.244	728.047
956.909	739.95
958.572	740.52
960.236	717.756
961.899	728.993
963.562	748.896
965.225	736.133
966.887	732.036
968.549	721.272
970.211	739.842
971.872	734.412
973.531	746.315
975.192	735.552
976.852	732.122
978.512	744.691
980.172	751.928
981.831	736.498
983.489	745.068
985.148	749.638
986.806	748.874
988.464	725.444
990.122	732.014
991.778	737.917
993.435	755.153
995.092	728.39
996.749	730.96
998.404	760.196
1000.06	740.1
1001.72	734.003
1003.37	749.239
1005.02	745.809
1006.68	749.712
1008.33	749.616
1009.99	746.185
1011.64	738.755
1013.29	747.325
1014.95	737.228
1016.6	737.798
1018.25	736.368
1019.9	762.271
1021.55	743.508
1023.2	727.411
1024.85	743.314
1026.51	740.551
1028.16	761.787
1029.81	731.024
1031.46	735.594
1033.1	759.497
1034.75	750.733
1036.4	738.636
1038.05	738.54
1039.7	769.109
1041.34	745.679
1042.99	746.916
1044.64	742.819
1046.29	751.389
1047.93	745.292
1049.58	767.862
1051.22	769.765
1052.87	771.668
1054.51	779.571
1056.16	776.141
1057.8	772.045
1059.45	778.614
1061.09	773.184
1062.73	761.087
1064.38	762.324
1066.02	748.227
1067.66	770.13
1069.3	766.034
1070.95	775.937
1072.59	771.84
1074.23	766.41
1075.87	783.646
1077.51	775.55
1079.15	766.119
1080.79	780.023
1082.43	776.592
1084.07	766.496
1085.71	771.066
1087.35	781.635
1088.99	787.539
1090.62	780.775
1092.26	740.012
1093.9	755.248
1095.53	761.151
1097.17	781.721
1098.81	754.958
1100.44	762.861
1102.08	764.097
1103.71	774.667
1105.35	802.57
1106.99	763.14
1108.62	778.377
1110.25	776.28
1111.89	749.517
1113.52	760.086
1115.15	767.99
1116.79	786.56
1118.42	777.796
1120.05	743.699
1121.68	747.602
1123.31	766.172
1124.95	786.742
1126.58	762.645
1128.21	801.215
1129.84	772.452
1131.47	782.355
1133.1	760.925
1134.73	772.828
1136.36	796.064
1137.98	777.968
1139.61	767.871
1141.24	769.107
1142.87	755.011
1144.5	762.247
1146.12	763.484
1147.75	747.387
1149.38	792.623
1151	775.193
1152.63	775.763
1154.26	762.333
1155.88	784.236
1157.51	776.139
1159.13	794.042
1160.76	795.946
1162.38	784.516
1164	793.752
1165.63	766.989
1167.25	788.225
1168.87	780.128
1170.49	802.698
1172.12	769.935
1173.74	785.171
1175.36	809.074
1176.98	778.311
1178.6	814.214
1180.22	806.784
1181.84	790.02
1183.46	770.59
1185.08	797.16
1186.7	799.063
1188.32	797.633
1189.94	794.203
1191.56	798.773
1193.18	784.676
1194.79	799.913
1196.41	791.816
1198.03	815.719
1199.64	786.289
1201.26	817.525
1202.88	796.762
1204.49	799.332
1206.11	806.568
1207.72	779.138
1209.34	787.041
1210.95	829.611
1212.57	764.848
1214.18	818.751
1215.8	797.987
1217.41	799.224
1219.02	798.461
1220.64	803.03
1222.25	810.934
1223.86	787.503
1225.47	802.073
1227.08	802.643
1228.69	786.546
1230.3	800.45
1231.92	791.686
1233.53	810.256
1235.14	799.492
1236.75	794.729
1238.35	808.632
1239.96	779.202
1241.57	789.772
1243.18	807.675
1244.79	804.912
1246.4	798.148
1248.01	808.718
1249.61	807.954
1251.22	799.191
1252.82	798.428
1254.43	814.331
1256.04	800.901
1257.64	808.804
1259.25	817.374
1260.85	793.277
1262.46	817.847
1264.06	811.083
1265.67	803.653
1267.27	800.89
1268.87	802.126
1270.48	800.029
1272.08	809.933
1273.68	793.836
1275.28	797.072
1276.89	805.642
1278.49	796.212
1280.09	814.115
1281.69	796.018
1283.29	815.255
1284.89	799.158
1286.49	828.395
1288.09	826.631
1289.69	822.201
1291.29	835.437
1292.89	816.674
1294.49	816.577
1296.09	819.814
1297.68	829.05
1299.28	852.953
1300.88	816.19
1302.48	835.426
1304.07	824.663
1305.67	841.233
1307.26	837.803
1308.86	825.706
1310.46	816.276
1312.05	838.179
1313.65	814.749
1315.24	823.985
1316.84	817.888
1318.43	819.792
1320.02	827.028
1321.62	855.598
1323.21	832.168
1324.8	836.738
1326.39	825.974
1327.99	832.544
1329.58	857.114
1331.17	823.684
1332.76	826.254
1334.35	824.157
1335.94	846.06
1337.53	820.63
1339.12	837.867
1340.71	819.77
1342.3	808.34
1343.89	840.909
1345.48	830.813
1347.07	847.383
1348.65	838.619
1350.24	815.856
1351.83	820.425
1353.42	826.995
1355	833.565
1356.59	813.468
1358.18	822.705
1359.76	837.941
1361.35	830.511
1362.93	821.081
1364.52	828.318
1366.1	840.221
1367.69	840.791
1369.27	822.027
1370.86	820.597
1372.44	839.167
1374.02	835.737
1375.61	816.307
1377.19	846.21
1378.77	843.446
1380.35	855.35
1381.93	837.253
1383.52	833.156
1385.1	839.726
1386.68	848.296
1388.26	836.865
1389.84	851.435
1391.42	829.339
1393	829.908
1394.58	841.145
1396.16	833.715
1397.74	830.285
1399.31	853.521
1400.89	820.091
1402.47	837.328
1404.05	859.897
1405.63	819.801
1407.2	832.37
1408.78	846.94
1410.36	845.51
1411.93	862.747
1413.51	845.317
1415.08	849.22
1416.66	845.79
1418.23	837.693
1419.81	849.596
1421.38	846.833
1422.95	867.402
1424.53	863.972
1426.1	841.875
1427.68	847.112
1429.25	854.348
1430.82	876.252
1432.39	865.488
1433.96	854.725
1435.54	847.961
1437.11	860.531
1438.68	840.434
1440.25	853.671
1441.82	868.241
1443.39	858.81
1444.96	849.38
1446.53	866.617
1448.1	842.52
1449.67	868.423
1451.23	870.326
1452.8	858.896
1454.37	870.799
1455.94	878.703
1457.5	845.273
1459.07	856.509
1460.64	881.746
1462.21	852.982
1463.77	860.219
1465.34	851.455
1466.9	845.358
1468.47	869.928
1470.03	874.498
1471.6	851.068
1473.16	867.638
1474.72	862.874
1476.29	856.111
1477.85	857.347
1479.42	848.584
1480.98	843.154
1482.54	854.39
1484.1	852.294
1485.66	862.197
1487.23	854.1
1488.79	868.003
1490.35	854.573
1491.91	842.476
1493.47	851.713
1495.03	866.283
1496.59	829.519
1498.15	891.422
1499.71	850.659
1501.27	862.562
1502.83	873.798
1504.39	856.368
1505.94	868.938
1507.5	869.508
1509.06	871.411
1510.62	875.981
1512.17	864.551
1513.73	875.787
1515.29	857.024
1516.84	854.927
1518.4	870.83
1519.95	892.067
1521.51	885.303
1523.06	898.54
1524.62	905.776
1526.17	891.68
1527.72	909.583
1529.28	879.486
1530.83	894.056
1532.38	887.292
1533.94	869.196
1535.49	883.099
1537.04	879.669
1538.59	898.238
1540.15	886.808
1541.7	892.712
1543.25	879.948
1544.8	884.518
1546.35	883.088
1547.9	884.324
1549.45	894.894
1551	894.797
1552.55	884.701
1554.1	870.604
1555.65	892.507
1557.19	887.743
1558.74	892.313
1560.29	904.217
1561.84	878.786
1563.38	877.356
1564.93	890.593
1566.48	877.829
1568.02	885.066
1569.57	905.636
1571.12	923.539
1572.66	886.775
1574.2	879.345
1575.75	881.915
1577.3	887.152
1578.84	859.721
1580.38	892.291
1581.93	886.861
1583.47	882.764
1585.01	864.668
1586.56	896.571
1588.1	885.141
1589.64	883.044
1591.18	880.28
1592.72	888.85
1594.27	859.42
1595.81	907.323
1597.35	885.893
1598.89	893.796
1600.43	849.7
1601.97	888.269
1603.51	862.839
1605.05	880.742
1606.59	872.647
1608.12	873.096
1609.66	892.302
1611.2	884.024
1612.74	865.128
1614.27	879.133
1615.81	902.328
1617.35	859.371
1618.89	882.651
1620.42	872.749
1621.96	854.797
1623.5	874.343
1625.03	875.794
1626.57	882.167
1628.1	882.245
1629.63	887.397
1631.17	889.767
1632.7	876.777
1634.24	872.632
1635.77	876.473
1637.3	880.902
1638.84	876.716
1640.37	871.604
1641.9	893.096
1643.43	894.671
1644.97	883.217
1646.5	891.735
1648.03	888.349
1649.56	895.029
1651.09	891.794
1652.62	893.855
1654.15	888.605
1655.68	898.104
1657.21	888.809
1658.74	899.073
1660.27	898.768
1661.79	900.447
1663.32	899.984
1664.85	901.227
1666.38	885.121
1667.91	918.09
1669.43	908.937
1670.96	888.942
1672.49	902.999
1674.01	898.954
1675.54	889.431
1677.06	897.757
1678.59	901.026
1680.11	896.438
1681.64	909.414
1683.16	895.258
1684.69	910.427
1686.21	910.078
1687.73	907.451
1689.26	915.55
1690.78	912.346
1692.3	907.866
1693.83	909.793
1695.35	899.627
1696.87	907.991
1698.39	906.661
1699.91	896.129
1701.43	904.499
1702.96	906.384
1704.48	915.292
1706	904.68
1707.52	915.072
1709.04	899.874
1710.55	897.503
1712.07	900.118
1713.59	901.827
1715.11	886.021
1716.63	899.205
1718.15	879.801
1719.66	916.083
1721.18	897.657
1722.7	890.946
1724.21	895.688
1725.73	888.305
1727.25	895.395
1728.76	872.374
1730.28	899.287
1731.8	883.084
1733.31	891.177
1734.82	898.676
1736.34	901.645
1737.85	894.286
1739.37	897.003
1740.88	887.412
1742.39	897.363
1743.91	897.426
1745.42	873.318
1746.93	882.129
1748.45	895.69
1749.96	898.871
1751.47	888.499
1752.98	889.482
1754.49	900.419
1756	903.58
1757.51	903.179
1757.73	903.142
1759.25	885.803
1760.77	893.798
1762.28	888.459
1763.8	909.12
1765.31	882.448
1766.83	899.109
1768.34	903.77
1769.86	884.431
1771.37	879.093
1772.89	911.087
1774.4	897.082
1775.92	894.409
1777.43	909.071
1778.94	909.065
1780.46	889.06
1781.97	889.054
1783.48	902.382
1784.99	895.71
1786.51	895.037
1788.02	890.365
1789.53	891.026
1791.04	903.688
1792.55	916.349
1794.06	900.343
1795.57	905.004
1797.08	902.332
1798.59	908.327
1800.1	898.321
1801.61	910.316
1803.12	908.31
1804.63	931.638
1806.13	925.633
1807.64	903.627
1809.15	892.288
1810.66	905.616
1812.16	906.32
1813.67	904.358
1815.18	909.062
1816.68	905.1
1818.19	917.804
1819.7	905.841
1821.2	900.546
1822.71	900.583
1824.21	909.954
1825.72	899.992
1827.22	894.696
1828.72	895.4
1830.23	913.438
1831.73	898.809
1833.23	898.179
1834.74	920.884
1836.24	902.255
1837.74	908.292
1839.24	902.33
1840.75	915.034
1842.25	913.071
1843.75	933.109
1845.25	913.146
1846.75	901.184
1848.25	914.555
1849.75	915.259
1851.25	898.63
1852.75	892.001
1854.25	907.372
1855.75	912.076
1857.25	898.78
1858.75	912.818
1860.24	915.522
1861.74	898.893
1863.24	907.597
1864.74	896.968
1866.23	900.339
1867.73	905.71
1869.23	920.414
1870.72	901.118
1872.22	902.489
1873.71	901.193
1875.21	901.898
1876.7	908.602
1878.2	908.639
1879.69	903.344
1881.19	891.381
1882.68	898.752
1884.18	890.79
1885.67	897.494
1887.16	911.531
1888.66	894.902
1890.15	929.607
1891.64	905.644
1893.13	921.682
1894.62	902.386
1896.11	911.757
1897.61	915.794
1899.1	905.165
1900.59	917.869
1902.08	921.24
1903.57	916.611
1905.06	893.982
1906.55	918.02
1908.04	913.391
1909.53	920.761
1911.02	906.132
1912.5	930.837
1913.99	920.874
1915.48	908.912
1916.97	928.949
1918.46	902.32
1919.94	931.024
1921.43	921.062
1922.92	915.099
1924.4	910.47
1925.89	941.175
1927.37	921.879
1928.86	922.583
1930.34	909.954
1931.83	903.325
1933.31	910.696
1934.8	912.067
1936.28	915.438
1937.77	912.142
1939.25	915.513
1940.73	934.217
1942.22	922.254
1943.7	904.959
1945.18	892.996
1946.66	916.367
1948.14	925.071
1949.63	907.109
1951.11	912.48
1952.59	907.851
1954.07	937.888
1955.55	906.592
1957.03	899.963
1958.51	946.668
1959.99	928.038
